SN2009lf 0.045000 30.415130 15.332900

#    SN     RAdeg    DEdeg           Host          Morph   z    e_z          r_z            r_Dis   Dis   r_Type  Type
           deg      deg
-------- -------- ------- ---------------------- ----- ----- ----- -------------------- --------- --- --------- ----
SN2009lf 30.41513 15.3329 2MASX_J02014081+151952  -999 0.045 0.002 CfA_Optical_Spectrum CBET_2023 CSS CBET_2025   Ia
# ['' 'B' 'H' 'J' 'Ks' 'V' "i'" "r'"]
# [''] on ['' 'PAIRITEL']
filter B4sh
#
55153.24 17.251 0.022
55154.19 17.331 0.025
55156.12 17.476 0.025
55157.16 17.565 0.025
55158.27 17.694 0.028
55160.20 18.033 0.067
55169.09 19.429 0.261
55176.14 19.820 0.101
55181.25 19.976 0.213
55185.15 20.107 0.235
55205.15 20.197 0.232
filter H2m
# PAIRITEL
55153.21 17.990 0.200
55154.21 18.000 0.130
55155.18 17.920 0.270
55156.20 17.970 0.210
55159.17 18.110 0.060
55160.19 18.180 0.250
55161.18 18.060 0.250
55167.22 18.070 0.210
55168.16 17.990 0.250
55169.18 17.890 0.080
55170.19 17.810 0.180
55178.14 18.000 0.100
55180.17 17.940 0.270
55182.13 18.210 0.180
55183.15 18.320 0.250
55184.11 18.620 0.050
filter J2m
# PAIRITEL
55153.21 17.720 0.030
55154.21 17.700 0.080
55155.18 17.710 0.050
55156.20 17.910 0.090
55158.19 18.450 0.220
55159.17 18.590 0.240
55160.19 18.720 0.250
55161.18 18.740 0.180
55162.18 18.780 0.080
55167.22 18.580 0.020
55168.16 18.540 0.250
55169.18 18.390 0.220
55170.19 18.420 0.250
55175.17 17.840 0.100
55178.14 18.060 0.110
55180.17 18.410 0.150
55182.13 18.690 0.180
55183.15 19.040 0.280
filter Ks2m
# PAIRITEL
55153.21 18.160 0.090
55159.17 17.940 0.210
55160.19 17.860 0.360
55168.16 18.130 0.370
55169.18 18.030 0.250
55180.17 18.950 0.170
55182.13 18.330 0.180
filter V4sh
#
55153.23 17.128 0.026
55154.18 17.125 0.023
55156.11 17.154 0.023
55157.16 17.191 0.030
55158.27 17.246 0.027
55160.20 17.407 0.037
55162.08 17.460 0.036
55169.09 17.968 0.043
55176.13 18.630 0.093
55181.25 18.962 0.099
55182.09 19.043 0.101
55185.14 19.290 0.101
55189.20 19.334 0.212
55205.15 19.973 0.217
55208.13 19.761 0.150
55244.14 21.027 0.362
filter ik
#
55153.23 17.584 0.031
55154.18 17.613 0.033
55156.11 17.647 0.037
55157.15 17.739 0.047
55158.26 17.848 0.034
55160.19 18.045 0.055
55162.07 18.162 0.079
55169.08 17.972 0.041
55176.13 18.107 0.057
55181.24 18.489 0.064
55182.08 18.721 0.059
55185.14 18.872 0.084
55205.14 19.735 0.174
55208.13 19.895 0.124
filter rk
#
55153.23 17.103 0.022
55154.18 17.103 0.026
55156.11 17.149 0.037
55157.16 17.204 0.028
55158.27 17.275 0.021
55160.20 17.409 0.031
55162.07 17.642 0.041
55169.09 17.797 0.040
55176.13 18.207 0.042
55181.24 18.628 0.056
55182.08 18.647 0.077
55185.14 18.967 0.109
55189.20 19.214 0.126
55205.15 19.607 0.115
55208.13 19.701 0.182
55244.14 20.809 0.287
